File: Brass Spectrum_Overall.txt
#FORMAT      : EMSA/MAS Spectral Data File
#VERSION     : 1.0
#TITLE       : Spectrum 1
#DATE        : 01-APR-2024
#TIME        : 10:35
#OWNER       :
#NPOINTS     : 2048.0
#NCOLUMNS    : 1.0
#XUNITS      : keV
#YUNITS      : counts
#DATATYPE    : XY
#XPERCHAN    : 0.01
#OFFSET      : -0.2
#SIGNALTYPE  : EDS
#CHOFFSET    : 20.0
#LIVETIME    : 59.998
#REALTIME    : 65.6222
#BEAMKV      : 20.0
#MAGCAM      : 2000.0
#XTILTSTGE   : 0.0
#AZIMANGLE   : 0.0
#ELEVANGLE   : 35.0
#XPOSITION mm: 9.7729
#YPOSITION mm: -4.0065
#ZPOSITION mm: 22.0000
##OXINSTPT   : 6
##OXINSTSTROB: 46.41
##OXINSTNDET : 1
##OXINSTELEMS: 29,30,82,6,8,17,13,26
##OXINSTLABEL: 29, 8.048, Cu
##OXINSTLABEL: 29, 8.905, Cu
##OXINSTLABEL: 29, 0.930, Cu
##OXINSTLABEL: 29, 0.832, Cu
##OXINSTLABEL: 29, 0.811, Cu
##OXINSTLABEL: 30, 8.639, Zn
##OXINSTLABEL: 30, 9.572, Zn
##OXINSTLABEL: 30, 1.012, Zn
##OXINSTLABEL: 30, 0.906, Zn
##OXINSTLABEL: 30, 0.884, Zn
##OXINSTLABEL: 82, 10.552, Pb
##OXINSTLABEL: 82, 12.614, Pb
##OXINSTLABEL: 82, 12.623, Pb
##OXINSTLABEL: 82, 11.349, Pb
##OXINSTLABEL: 82, 14.765, Pb
##OXINSTLABEL: 82, 15.101, Pb
##OXINSTLABEL: 82, 9.185, Pb
##OXINSTLABEL: 82, 2.345, Pb
##OXINSTLABEL: 82, 2.653, Pb
##OXINSTLABEL: 82, 1.823, Pb
##OXINSTLABEL: 82, 0.293, Pb
##OXINSTLABEL: 82, 0.276, Pb
##OXINSTLABEL: 6, 0.277, C
##OXINSTLABEL: 8, 0.525, O
##OXINSTLABEL: 17, 2.622, Cl
##OXINSTLABEL: 17, 2.816, Cl
##OXINSTLABEL: 17, 0.181, Cl
##OXINSTLABEL: 13, 1.487, Al
##OXINSTLABEL: 26, 6.404, Fe
##OXINSTLABEL: 26, 7.058, Fe
##OXINSTLABEL: 26, 0.703, Fe
##OXINSTLABEL: 26, 0.615, Fe
#SPECTRUM    : Spectral Data Starts Here
-0.20000, 0.0
-0.13000, 0.0
-0.06000, 22.0
0.01000, 4107.0
0.08000, 611.0
0.15000, 77.0
0.22000, 155.0
0.29000, 310.0
0.36000, 114.0
0.43000, 179.0
0.50000, 573.0
0.57000, 399.0
0.64000, 443.0
0.71000, 589.0
0.78000, 1482.0
0.85000, 2650.0
0.92000, 20959.0
0.99000, 7067.0
1.06000, 2419.0
1.13000, 272.0
1.20000, 218.0
1.27000, 255.0
1.34000, 276.0
1.41000, 275.0
1.48000, 360.0
1.55000, 327.0
1.62000, 330.0
1.69000, 340.0
1.76000, 367.0
1.83000, 402.0
1.90000, 366.0
1.97000, 379.0
2.04000, 376.0
2.11000, 394.0
2.18000, 395.0
2.25000, 429.0
2.32000, 948.0
2.39000, 994.0
2.46000, 879.0
2.53000, 481.0
2.60000, 499.0
2.67000, 486.0
2.74000, 427.0
2.81000, 395.0
2.88000, 398.0
2.95000, 398.0
3.02000, 384.0
3.09000, 424.0
3.16000, 410.0
3.23000, 370.0
3.30000, 364.0
3.37000, 367.0
3.44000, 393.0
3.51000, 387.0
3.58000, 385.0
3.65000, 388.0
3.72000, 381.0
3.79000, 349.0
3.86000, 346.0
3.93000, 385.0
4.00000, 340.0
4.07000, 344.0
4.14000, 320.0
4.21000, 303.0
4.28000, 314.0
4.35000, 308.0
4.42000, 305.0
4.49000, 304.0
4.56000, 302.0
4.63000, 309.0
4.70000, 286.0
4.77000, 295.0
4.84000, 266.0
4.91000, 278.0
4.98000, 260.0
5.05000, 281.0
5.12000, 258.0
5.19000, 264.0
5.26000, 239.0
5.33000, 257.0
5.40000, 257.0
5.47000, 232.0
5.54000, 238.0
5.61000, 215.0
5.68000, 220.0
5.75000, 228.0
5.82000, 228.0
5.89000, 228.0
5.96000, 195.0
6.03000, 211.0
6.10000, 203.0
6.17000, 199.0
6.24000, 204.0
6.31000, 220.0
6.38000, 262.0
6.45000, 226.0
6.52000, 185.0
6.59000, 192.0
6.66000, 187.0
6.73000, 179.0
6.80000, 173.0
6.87000, 195.0
6.94000, 191.0
7.01000, 175.0
7.08000, 189.0
7.15000, 162.0
7.22000, 146.0
7.29000, 168.0
7.36000, 157.0
7.43000, 150.0
7.50000, 160.0
7.57000, 168.0
7.64000, 157.0
7.71000, 142.0
7.78000, 171.0
7.85000, 233.0
7.92000, 959.0
7.99000, 3992.0
8.06000, 4947.0
8.13000, 1907.0
8.20000, 311.0
8.27000, 164.0
8.34000, 136.0
8.41000, 150.0
8.48000, 309.0
8.55000, 1298.0
8.62000, 2545.0
8.69000, 1550.0
8.76000, 512.0
8.83000, 521.0
8.90000, 758.0
8.97000, 520.0
9.04000, 167.0
9.11000, 111.0
9.18000, 123.0
9.25000, 90.0
9.32000, 88.0
9.39000, 112.0
9.46000, 167.0
9.53000, 356.0
9.60000, 343.0
9.67000, 170.0
9.74000, 92.0
9.81000, 85.0
9.88000, 67.0
9.95000, 78.0
10.02000, 78.0
10.09000, 79.0
10.16000, 65.0
10.23000, 74.0
10.30000, 70.0
10.37000, 75.0
10.44000, 88.0
10.51000, 112.0
10.58000, 117.0
10.65000, 87.0
10.72000, 78.0
10.79000, 81.0
10.86000, 63.0
10.93000, 68.0
11.00000, 67.0
11.07000, 64.0
11.14000, 68.0
11.21000, 55.0
11.28000, 73.0
11.35000, 59.0
11.42000, 63.0
11.49000, 53.0
11.56000, 53.0
11.63000, 64.0
11.70000, 54.0
11.77000, 50.0
11.84000, 60.0
11.91000, 56.0
11.98000, 49.0
12.05000, 56.0
12.12000, 51.0
12.19000, 49.0
12.26000, 51.0
12.33000, 43.0
12.40000, 54.0
12.47000, 59.0
12.54000, 57.0
12.61000, 66.0
12.68000, 53.0
12.75000, 50.0
12.82000, 49.0
12.89000, 43.0
12.96000, 39.0
13.03000, 43.0
13.10000, 45.0
13.17000, 38.0
13.24000, 44.0
13.31000, 28.0
13.38000, 28.0
13.45000, 37.0
13.52000, 31.0
13.59000, 37.0
13.66000, 31.0
13.73000, 29.0
13.80000, 33.0
13.87000, 30.0
13.94000, 27.0
14.01000, 23.0
14.08000, 31.0
14.15000, 29.0
14.22000, 25.0
14.29000, 27.0
14.36000, 29.0
14.43000, 32.0
14.50000, 19.0
14.57000, 21.0
14.64000, 21.0
14.71000, 20.0
14.78000, 29.0
14.85000, 20.0
14.92000, 28.0
14.99000, 15.0
15.06000, 26.0
15.13000, 21.0
15.20000, 23.0
15.27000, 15.0
15.34000, 15.0
15.41000, 23.0
15.48000, 10.0
15.55000, 16.0
15.62000, 13.0
15.69000, 14.0
15.76000, 17.0
15.83000, 18.0
15.90000, 10.0
15.97000, 16.0
16.04000, 16.0
16.11000, 16.0
16.18000, 19.0
16.25000, 19.0
16.32000, 10.0
16.39000, 13.0
16.46000, 14.0
16.53000, 9.0
16.60000, 12.0
16.67000, 13.0
16.74000, 13.0
16.81000, 12.0
16.88000, 8.0
16.95000, 15.0
17.02000, 8.0
17.09000, 7.0
17.16000, 7.0
17.23000, 11.0
17.30000, 4.0
17.37000, 8.0
17.44000, 7.0
17.51000, 8.0
17.58000, 7.0
17.65000, 9.0
17.72000, 8.0
17.79000, 7.0
17.86000, 6.0
17.93000, 2.0
18.00000, 4.0
18.07000, 7.0
18.14000, 7.0
18.21000, 6.0
18.28000, 5.0
18.35000, 6.0
18.42000, 4.0
18.49000, 2.0
18.56000, 5.0
18.63000, 5.0
18.70000, 1.0
18.77000, 1.0
18.84000, 4.0
18.91000, 3.0
18.98000, 1.0
19.05000, 5.0
19.12000, 2.0
19.19000, 1.0
19.26000, 0.0
19.33000, 1.0
19.40000, 0.0
19.47000, 0.0
19.54000, 1.0
19.61000, 0.0
19.68000, 0.0
19.75000, 0.0
19.82000, 0.0
19.89000, 0.0
19.96000, 0.0
20.03000, 0.0
20.10000, 1.0
20.17000, 0.0
20.24000, 0.0
20.27000, 0.0
#ENDOFDATA   :