File: Brass Spectrum_Pb particle.txt
#FORMAT      : EMSA/MAS Spectral Data File
#VERSION     : 1.0
#TITLE       : Spectrum 2
#DATE        : 01-APR-2024
#TIME        : 10:41
#OWNER       :
#NPOINTS     : 2048.0
#NCOLUMNS    : 1.0
#XUNITS      : keV
#YUNITS      : counts
#DATATYPE    : XY
#XPERCHAN    : 0.01
#OFFSET      : -0.2
#SIGNALTYPE  : EDS
#CHOFFSET    : 20.0
#LIVETIME    : 60.0
#REALTIME    : 69.977
#BEAMKV      : 20.0
#MAGCAM      : 2000.0
#XTILTSTGE   : 0.0
#AZIMANGLE   : 0.0
#ELEVANGLE   : 35.0
#XPOSITION mm: 9.7729
#YPOSITION mm: -4.0065
#ZPOSITION mm: 22.0000
##OXINSTPT   : 6
##OXINSTSTROB: 46.45
##OXINSTNDET : 1
##OXINSTELEMS: 8,29,30,82,6,13,17
##OXINSTLABEL: 8, 0.525, O
##OXINSTLABEL: 29, 8.048, Cu
##OXINSTLABEL: 29, 8.905, Cu
##OXINSTLABEL: 29, 0.930, Cu
##OXINSTLABEL: 29, 0.832, Cu
##OXINSTLABEL: 29, 0.811, Cu
##OXINSTLABEL: 30, 8.639, Zn
##OXINSTLABEL: 30, 9.572, Zn
##OXINSTLABEL: 30, 1.012, Zn
##OXINSTLABEL: 30, 0.906, Zn
##OXINSTLABEL: 30, 0.884, Zn
##OXINSTLABEL: 82, 10.552, Pb
##OXINSTLABEL: 82, 12.614, Pb
##OXINSTLABEL: 82, 12.623, Pb
##OXINSTLABEL: 82, 11.349, Pb
##OXINSTLABEL: 82, 14.765, Pb
##OXINSTLABEL: 82, 15.101, Pb
##OXINSTLABEL: 82, 9.185, Pb
##OXINSTLABEL: 82, 2.345, Pb
##OXINSTLABEL: 82, 2.653, Pb
##OXINSTLABEL: 82, 1.823, Pb
##OXINSTLABEL: 82, 0.293, Pb
##OXINSTLABEL: 82, 0.276, Pb
##OXINSTLABEL: 6, 0.277, C
##OXINSTLABEL: 13, 1.487, Al
##OXINSTLABEL: 17, 2.622, Cl
##OXINSTLABEL: 17, 2.816, Cl
##OXINSTLABEL: 17, 0.181, Cl
#SPECTRUM    : Spectral Data Starts Here
-0.20000, 0.0
-0.13000, 0.0
-0.06000, 26.0
0.01000, 4130.0
0.08000, 610.0
0.15000, 173.0
0.22000, 380.0
0.29000, 1040.0
0.36000, 196.0
0.43000, 276.0
0.50000, 1970.0
0.57000, 954.0
0.64000, 598.0
0.71000, 693.0
0.78000, 621.0
0.85000, 870.0
0.92000, 3788.0
0.99000, 2334.0
1.06000, 1285.0
1.13000, 680.0
1.20000, 736.0
1.27000, 831.0
1.34000, 825.0
1.41000, 932.0
1.48000, 1596.0
1.55000, 1094.0
1.62000, 947.0
1.69000, 1008.0
1.76000, 1373.0
1.83000, 2304.0
1.90000, 1341.0
1.97000, 1162.0
2.04000, 1057.0
2.11000, 1171.0
2.18000, 1420.0
2.25000, 2059.0
2.32000, 17981.0
2.39000, 19836.0
2.46000, 15330.0
2.53000, 2586.0
2.60000, 1845.0
2.67000, 2067.0
2.74000, 788.0
2.81000, 711.0
2.88000, 716.0
2.95000, 692.0
3.02000, 718.0
3.09000, 876.0
3.16000, 794.0
3.23000, 630.0
3.30000, 628.0
3.37000, 618.0
3.44000, 725.0
3.51000, 663.0
3.58000, 701.0
3.65000, 756.0
3.72000, 683.0
3.79000, 648.0
3.86000, 622.0
3.93000, 615.0
4.00000, 623.0
4.07000, 626.0
4.14000, 596.0
4.21000, 590.0
4.28000, 589.0
4.35000, 610.0
4.42000, 592.0
4.49000, 562.0
4.56000, 601.0
4.63000, 608.0
4.70000, 600.0
4.77000, 590.0
4.84000, 583.0
4.91000, 581.0
4.98000, 532.0
5.05000, 547.0
5.12000, 577.0
5.19000, 519.0
5.26000, 555.0
5.33000, 525.0
5.40000, 523.0
5.47000, 530.0
5.54000, 528.0
5.61000, 549.0
5.68000, 550.0
5.75000, 533.0
5.82000, 520.0
5.89000, 538.0
5.96000, 460.0
6.03000, 500.0
6.10000, 479.0
6.17000, 471.0
6.24000, 494.0
6.31000, 483.0
6.38000, 481.0
6.45000, 467.0
6.52000, 465.0
6.59000, 454.0
6.66000, 428.0
6.73000, 456.0
6.80000, 419.0
6.87000, 437.0
6.94000, 495.0
7.01000, 408.0
7.08000, 413.0
7.15000, 418.0
7.22000, 391.0
7.29000, 409.0
7.36000, 400.0
7.43000, 441.0
7.50000, 379.0
7.57000, 403.0
7.64000, 441.0
7.71000, 397.0
7.78000, 383.0
7.85000, 402.0
7.92000, 697.0
7.99000, 1584.0
8.06000, 1890.0
8.13000, 924.0
8.20000, 383.0
8.27000, 344.0
8.34000, 362.0
8.41000, 348.0
8.48000, 417.0
8.55000, 745.0
8.62000, 1123.0
8.69000, 862.0
8.76000, 502.0
8.83000, 473.0
8.90000, 530.0
8.97000, 405.0
9.04000, 339.0
9.11000, 347.0
9.18000, 344.0
9.25000, 322.0
9.32000, 306.0
9.39000, 285.0
9.46000, 297.0
9.53000, 339.0
9.60000, 363.0
9.67000, 292.0
9.74000, 275.0
9.81000, 274.0
9.88000, 258.0
9.95000, 222.0
10.02000, 245.0
10.09000, 284.0
10.16000, 241.0
10.23000, 239.0
10.30000, 254.0
10.37000, 400.0
10.44000, 736.0
10.51000, 1432.0
10.58000, 1310.0
10.65000, 645.0
10.72000, 278.0
10.79000, 207.0
10.86000, 212.0
10.93000, 242.0
11.00000, 211.0
11.07000, 211.0
11.14000, 200.0
11.21000, 186.0
11.28000, 210.0
11.35000, 174.0
11.42000, 195.0
11.49000, 190.0
11.56000, 178.0
11.63000, 189.0
11.70000, 174.0
11.77000, 168.0
11.84000, 165.0
11.91000, 158.0
11.98000, 139.0
12.05000, 169.0
12.12000, 184.0
12.19000, 173.0
12.26000, 148.0
12.33000, 181.0
12.40000, 160.0
12.47000, 231.0
12.54000, 463.0
12.61000, 566.0
12.68000, 411.0
12.75000, 215.0
12.82000, 162.0
12.89000, 138.0
12.96000, 154.0
13.03000, 136.0
13.10000, 140.0
13.17000, 113.0
13.24000, 109.0
13.31000, 104.0
13.38000, 121.0
13.45000, 96.0
13.52000, 119.0
13.59000, 88.0
13.66000, 100.0
13.73000, 89.0
13.80000, 88.0
13.87000, 96.0
13.94000, 89.0
14.01000, 91.0
14.08000, 73.0
14.15000, 85.0
14.22000, 99.0
14.29000, 87.0
14.36000, 67.0
14.43000, 95.0
14.50000, 76.0
14.57000, 93.0
14.64000, 89.0
14.71000, 106.0
14.78000, 113.0
14.85000, 78.0
14.92000, 69.0
14.99000, 70.0
15.06000, 61.0
15.13000, 65.0
15.20000, 65.0
15.27000, 50.0
15.34000, 47.0
15.41000, 64.0
15.48000, 62.0
15.55000, 53.0
15.62000, 51.0
15.69000, 45.0
15.76000, 61.0
15.83000, 47.0
15.90000, 44.0
15.97000, 39.0
16.04000, 43.0
16.11000, 37.0
16.18000, 41.0
16.25000, 38.0
16.32000, 43.0
16.39000, 31.0
16.46000, 35.0
16.53000, 28.0
16.60000, 31.0
16.67000, 27.0
16.74000, 30.0
16.81000, 25.0
16.88000, 32.0
16.95000, 31.0
17.02000, 34.0
17.09000, 23.0
17.16000, 24.0
17.23000, 22.0
17.30000, 37.0
17.37000, 23.0
17.44000, 25.0
17.51000, 24.0
17.58000, 15.0
17.65000, 18.0
17.72000, 14.0
17.79000, 16.0
17.86000, 16.0
17.93000, 13.0
18.00000, 15.0
18.07000, 16.0
18.14000, 14.0
18.21000, 9.0
18.28000, 12.0
18.35000, 11.0
18.42000, 7.0
18.49000, 17.0
18.56000, 9.0
18.63000, 8.0
18.70000, 8.0
18.77000, 5.0
18.84000, 6.0
18.91000, 4.0
18.98000, 4.0
19.05000, 4.0
19.12000, 3.0
19.19000, 2.0
19.26000, 5.0
19.33000, 5.0
19.40000, 5.0
19.47000, 2.0
19.54000, 1.0
19.61000, 0.0
19.68000, 0.0
19.75000, 1.0
19.82000, 2.0
19.89000, 0.0
19.96000, 0.0
20.03000, 0.0
20.10000, 0.0
20.17000, 0.0
20.24000, 0.0
20.27000, 0.0
#ENDOFDATA   :